11/17/2020 10:21 PM
Wavelength (nm)	10mm Absorbance
//WLCalib: Shift 	0.05667	
//WLCalib: 261S 	-0.41000	
//WLCalib: 362S 	-0.47000	
//WLCalib: 484S 	0.00000	
//WLCalib: 529S 	0.07000	
//WLCalib: 823S 	-0.52000	
//QSpecEnd: 
220.0	-0.013
220.5	-0.004
221.0	-0.009
221.5	-0.010
222.0	-0.010
222.5	-0.008
223.0	-0.010
223.5	-0.004
224.0	-0.004
224.5	-0.004
225.0	-0.007
225.5	-0.004
226.0	-0.005
226.5	-0.007
227.0	-0.006
227.5	-0.007
228.0	-0.008
228.5	-0.006
229.0	-0.007
229.5	-0.006
230.0	-0.005
230.5	-0.004
231.0	-0.006
231.5	-0.005
232.0	-0.004
232.5	-0.001
233.0	-0.001
233.5	0.001
234.0	0.002
234.5	0.001
235.0	0.004
235.5	0.009
236.0	0.009
236.5	0.011
237.0	0.012
237.5	0.011
238.0	0.012
238.5	0.013
239.0	0.015
239.5	0.015
240.0	0.014
240.5	0.013
241.0	0.012
241.5	0.012
242.0	0.012
242.5	0.010
243.0	0.009
243.5	0.007
244.0	0.007
244.5	0.008
245.0	0.009
245.5	0.010
246.0	0.010
246.5	0.009
247.0	0.009
247.5	0.008
248.0	0.009
248.5	0.010
249.0	0.010
249.5	0.012
250.0	0.013
250.5	0.012
251.0	0.014
251.5	0.014
252.0	0.012
252.5	0.012
253.0	0.010
253.5	0.009
254.0	0.010
254.5	0.010
255.0	0.011
255.5	0.013
256.0	0.012
256.5	0.012
257.0	0.012
257.5	0.010
258.0	0.011
258.5	0.011
259.0	0.011
259.5	0.013
260.0	0.013
260.5	0.011
261.0	0.012
261.5	0.012
262.0	0.010
262.5	0.010
263.0	0.007
263.5	0.006
264.0	0.005
264.5	0.005
265.0	0.006
265.5	0.006
266.0	0.007
266.5	0.006
267.0	0.006
267.5	0.006
268.0	0.008
268.5	0.010
269.0	0.012
269.5	0.015
270.0	0.016
270.5	0.018
271.0	0.019
271.5	0.019
272.0	0.019
272.5	0.020
273.0	0.022
273.5	0.023
274.0	0.024
274.5	0.024
275.0	0.025
275.5	0.025
276.0	0.024
276.5	0.023
277.0	0.022
277.5	0.021
278.0	0.021
278.5	0.021
279.0	0.023
279.5	0.022
280.0	0.021
280.5	0.020
281.0	0.020
281.5	0.022
282.0	0.023
282.5	0.022
283.0	0.022
283.5	0.022
284.0	0.024
284.5	0.024
285.0	0.024
285.5	0.024
286.0	0.024
286.5	0.024
287.0	0.025
287.5	0.025
288.0	0.026
288.5	0.026
289.0	0.024
289.5	0.023
290.0	0.023
290.5	0.022
291.0	0.024
291.5	0.022
292.0	0.022
292.5	0.023
293.0	0.022
293.5	0.024
294.0	0.022
294.5	0.024
295.0	0.024
295.5	0.023
296.0	0.024
296.5	0.023
297.0	0.024
297.5	0.023
298.0	0.023
298.5	0.023
299.0	0.023
299.5	0.023
300.0	0.021
300.5	0.021
301.0	0.021
301.5	0.020
302.0	0.018
302.5	0.017
303.0	0.016
303.5	0.012
304.0	0.011
304.5	0.011
305.0	0.011
305.5	0.012
306.0	0.010
306.5	0.009
307.0	0.009
307.5	0.009
308.0	0.007
308.5	0.005
309.0	0.005
309.5	0.005
310.0	0.005
310.5	0.006
311.0	0.008
311.5	0.008
312.0	0.008
312.5	0.008
313.0	0.007
313.5	0.007
314.0	0.007
314.5	0.007
315.0	0.007
315.5	0.008
316.0	0.011
316.5	0.013
317.0	0.012
317.5	0.010
318.0	0.010
318.5	0.010
319.0	0.010
319.5	0.008
320.0	0.007
320.5	0.009
321.0	0.010
321.5	0.010
322.0	0.009
322.5	0.010
323.0	0.010
323.5	0.009
324.0	0.006
324.5	0.005
325.0	0.007
325.5	0.008
326.0	0.007
326.5	0.008
327.0	0.010
327.5	0.009
328.0	0.008
328.5	0.007
329.0	0.004
329.5	0.004
330.0	0.005
330.5	0.003
331.0	0.003
331.5	0.005
332.0	0.006
332.5	0.007
333.0	0.006
333.5	0.005
334.0	0.004
334.5	0.002
335.0	0.002
335.5	0.001
336.0	0.001
336.5	0.002
337.0	0.005
337.5	0.004
338.0	0.004
338.5	0.003
339.0	0.002
339.5	0.002
340.0	0.000
340.5	0.000
341.0	0.001
341.5	0.002
342.0	0.003
342.5	0.004
343.0	0.006
343.5	0.007
344.0	0.008
344.5	0.008
345.0	0.007
345.5	0.006
346.0	0.007
346.5	0.007
347.0	0.007
347.5	0.008
348.0	0.009
348.5	0.009
349.0	0.007
349.5	0.008
350.0	0.006



11/17/2020 10:21 PM
Wavelength (nm)	10mm Absorbance
//WLCalib: Shift 	0.05667	
//WLCalib: 261S 	-0.41000	
//WLCalib: 362S 	-0.47000	
//WLCalib: 484S 	0.00000	
//WLCalib: 529S 	0.07000	
//WLCalib: 823S 	-0.52000	
//QSpecEnd: 
220.0	0.690
220.5	0.676
221.0	0.665
221.5	0.643
222.0	0.622
222.5	0.598
223.0	0.577
223.5	0.552
224.0	0.527
224.5	0.501
225.0	0.469
225.5	0.453
226.0	0.436
226.5	0.422
227.0	0.413
227.5	0.405
228.0	0.394
228.5	0.384
229.0	0.378
229.5	0.370
230.0	0.362
230.5	0.352
231.0	0.340
231.5	0.330
232.0	0.320
232.5	0.309
233.0	0.292
233.5	0.277
234.0	0.261
234.5	0.241
235.0	0.224
235.5	0.210
236.0	0.194
236.5	0.178
237.0	0.163
237.5	0.146
238.0	0.134
238.5	0.123
239.0	0.112
239.5	0.100
240.0	0.094
240.5	0.088
241.0	0.082
241.5	0.078
242.0	0.075
242.5	0.070
243.0	0.066
243.5	0.062
244.0	0.057
244.5	0.055
245.0	0.055
245.5	0.054
246.0	0.055
246.5	0.054
247.0	0.054
247.5	0.053
248.0	0.054
248.5	0.054
249.0	0.054
249.5	0.055
250.0	0.057
250.5	0.057
251.0	0.060
251.5	0.062
252.0	0.063
252.5	0.065
253.0	0.066
253.5	0.066
254.0	0.068
254.5	0.069
255.0	0.069
255.5	0.069
256.0	0.071
256.5	0.071
257.0	0.069
257.5	0.066
258.0	0.066
258.5	0.064
259.0	0.065
259.5	0.067
260.0	0.068
260.5	0.067
261.0	0.068
261.5	0.069
262.0	0.067
262.5	0.066
263.0	0.066
263.5	0.065
264.0	0.066
264.5	0.069
265.0	0.073
265.5	0.073
266.0	0.075
266.5	0.076
267.0	0.075
267.5	0.074
268.0	0.075
268.5	0.076
269.0	0.077
269.5	0.079
270.0	0.079
270.5	0.080
271.0	0.081
271.5	0.083
272.0	0.084
272.5	0.084
273.0	0.085
273.5	0.085
274.0	0.087
274.5	0.088
275.0	0.089
275.5	0.090
276.0	0.090
276.5	0.089
277.0	0.089
277.5	0.090
278.0	0.090
278.5	0.089
279.0	0.090
279.5	0.089
280.0	0.086
280.5	0.086
281.0	0.084
281.5	0.084
282.0	0.082
282.5	0.081
283.0	0.079
283.5	0.076
284.0	0.075
284.5	0.074
285.0	0.072
285.5	0.070
286.0	0.068
286.5	0.067
287.0	0.066
287.5	0.065
288.0	0.063
288.5	0.062
289.0	0.060
289.5	0.059
290.0	0.056
290.5	0.052
291.0	0.050
291.5	0.045
292.0	0.041
292.5	0.038
293.0	0.037
293.5	0.035
294.0	0.030
294.5	0.027
295.0	0.025
295.5	0.023
296.0	0.022
296.5	0.021
297.0	0.020
297.5	0.018
298.0	0.018
298.5	0.018
299.0	0.017
299.5	0.018
300.0	0.017
300.5	0.017
301.0	0.017
301.5	0.017
302.0	0.017
302.5	0.016
303.0	0.014
303.5	0.012
304.0	0.010
304.5	0.010
305.0	0.010
305.5	0.010
306.0	0.008
306.5	0.009
307.0	0.007
307.5	0.007
308.0	0.004
308.5	0.002
309.0	0.000
309.5	-0.001
310.0	-0.002
310.5	-0.001
311.0	0.000
311.5	-0.001
312.0	-0.002
312.5	-0.002
313.0	-0.003
313.5	-0.002
314.0	-0.001
314.5	0.000
315.0	0.000
315.5	0.001
316.0	0.003
316.5	0.005
317.0	0.007
317.5	0.006
318.0	0.006
318.5	0.006
319.0	0.007
319.5	0.005
320.0	0.005
320.5	0.006
321.0	0.006
321.5	0.004
322.0	0.004
322.5	0.004
323.0	0.005
323.5	0.005
324.0	0.004
324.5	0.001
325.0	0.003
325.5	0.004
326.0	0.003
326.5	0.003
327.0	0.002
327.5	0.002
328.0	0.001
328.5	0.000
329.0	0.000
329.5	0.000
330.0	0.001
330.5	-0.001
331.0	-0.001
331.5	0.000
332.0	0.002
332.5	0.002
333.0	0.000
333.5	0.000
334.0	0.000
334.5	0.000
335.0	0.002
335.5	0.002
336.0	0.003
336.5	0.005
337.0	0.006
337.5	0.005
338.0	0.005
338.5	0.004
339.0	0.003
339.5	0.001
340.0	0.000
340.5	0.001
341.0	0.000
341.5	0.001
342.0	0.002
342.5	0.003
343.0	0.003
343.5	0.003
344.0	0.003
344.5	0.003
345.0	0.002
345.5	0.002
346.0	0.003
346.5	0.002
347.0	0.003
347.5	0.005
348.0	0.005
348.5	0.005
349.0	0.005
349.5	0.005
350.0	0.004



11/17/2020 10:22 PM
Wavelength (nm)	10mm Absorbance
//WLCalib: Shift 	0.05667	
//WLCalib: 261S 	-0.41000	
//WLCalib: 362S 	-0.47000	
//WLCalib: 484S 	0.00000	
//WLCalib: 529S 	0.07000	
//WLCalib: 823S 	-0.52000	
//QSpecEnd: 
220.0	11.111
220.5	11.031
221.0	10.932
221.5	10.760
222.0	10.573
222.5	10.348
223.0	10.119
223.5	9.802
224.0	9.493
224.5	9.111
225.0	8.735
225.5	8.424
226.0	8.165
226.5	7.952
227.0	7.752
227.5	7.559
228.0	7.372
228.5	7.196
229.0	7.019
229.5	6.826
230.0	6.613
230.5	6.385
231.0	6.155
231.5	5.904
232.0	5.625
232.5	5.316
233.0	4.984
233.5	4.651
234.0	4.319
234.5	3.983
235.0	3.656
235.5	3.340
236.0	3.041
236.5	2.770
237.0	2.519
237.5	2.280
238.0	2.051
238.5	1.836
239.0	1.649
239.5	1.498
240.0	1.379
240.5	1.285
241.0	1.210
241.5	1.147
242.0	1.095
242.5	1.047
243.0	1.004
243.5	0.969
244.0	0.940
244.5	0.919
245.0	0.903
245.5	0.890
246.0	0.878
246.5	0.869
247.0	0.861
247.5	0.856
248.0	0.853
248.5	0.852
249.0	0.853
249.5	0.856
250.0	0.859
250.5	0.862
251.0	0.868
251.5	0.874
252.0	0.879
252.5	0.887
253.0	0.895
253.5	0.907
254.0	0.920
254.5	0.933
255.0	0.946
255.5	0.962
256.0	0.981
256.5	0.999
257.0	1.016
257.5	1.033
258.0	1.049
258.5	1.059
259.0	1.069
259.5	1.081
260.0	1.089
260.5	1.096
261.0	1.105
261.5	1.112
262.0	1.118
262.5	1.126
263.0	1.132
263.5	1.143
264.0	1.155
264.5	1.169
265.0	1.183
265.5	1.198
266.0	1.212
266.5	1.224
267.0	1.235
267.5	1.246
268.0	1.260
268.5	1.274
269.0	1.285
269.5	1.297
270.0	1.307
270.5	1.318
271.0	1.326
271.5	1.336
272.0	1.344
272.5	1.354
273.0	1.362
273.5	1.371
274.0	1.378
274.5	1.385
275.0	1.391
275.5	1.397
276.0	1.401
276.5	1.405
277.0	1.408
277.5	1.410
278.0	1.411
278.5	1.411
279.0	1.409
279.5	1.404
280.0	1.397
280.5	1.388
281.0	1.376
281.5	1.364
282.0	1.347
282.5	1.330
283.0	1.307
283.5	1.283
284.0	1.259
284.5	1.237
285.0	1.212
285.5	1.185
286.0	1.157
286.5	1.129
287.0	1.096
287.5	1.061
288.0	1.023
288.5	0.987
289.0	0.948
289.5	0.911
290.0	0.868
290.5	0.824
291.0	0.777
291.5	0.727
292.0	0.678
292.5	0.633
293.0	0.589
293.5	0.546
294.0	0.500
294.5	0.458
295.0	0.418
295.5	0.382
296.0	0.351
296.5	0.324
297.0	0.300
297.5	0.278
298.0	0.257
298.5	0.238
299.0	0.220
299.5	0.203
300.0	0.187
300.5	0.173
301.0	0.159
301.5	0.143
302.0	0.128
302.5	0.115
303.0	0.103
303.5	0.091
304.0	0.081
304.5	0.073
305.0	0.064
305.5	0.059
306.0	0.051
306.5	0.045
307.0	0.038
307.5	0.033
308.0	0.028
308.5	0.023
309.0	0.022
309.5	0.019
310.0	0.017
310.5	0.015
311.0	0.015
311.5	0.013
312.0	0.012
312.5	0.012
313.0	0.011
313.5	0.010
314.0	0.010
314.5	0.010
315.0	0.010
315.5	0.010
316.0	0.011
316.5	0.011
317.0	0.011
317.5	0.009
318.0	0.009
318.5	0.008
319.0	0.008
319.5	0.006
320.0	0.005
320.5	0.005
321.0	0.008
321.5	0.008
322.0	0.006
322.5	0.007
323.0	0.008
323.5	0.007
324.0	0.004
324.5	0.002
325.0	0.004
325.5	0.004
326.0	0.003
326.5	0.003
327.0	0.002
327.5	0.002
328.0	0.002
328.5	-0.002
329.0	-0.003
329.5	-0.003
330.0	-0.004
330.5	-0.003
331.0	-0.002
331.5	0.000
332.0	0.001
332.5	0.001
333.0	0.001
333.5	0.002
334.0	0.001
334.5	0.002
335.0	0.003
335.5	0.001
336.0	0.003
336.5	0.004
337.0	0.005
337.5	0.004
338.0	0.004
338.5	0.003
339.0	0.001
339.5	0.000
340.0	0.000
340.5	0.000
341.0	-0.001
341.5	0.000
342.0	-0.001
342.5	0.000
343.0	0.002
343.5	0.002
344.0	0.002
344.5	0.001
345.0	0.000
345.5	0.000
346.0	0.001
346.5	0.001
347.0	0.002
347.5	0.002
348.0	0.002
348.5	0.002
349.0	0.001
349.5	0.003
350.0	0.002



11/17/2020 10:22 PM
Wavelength (nm)	10mm Absorbance
//WLCalib: Shift 	0.05667	
//WLCalib: 261S 	-0.41000	
//WLCalib: 362S 	-0.47000	
//WLCalib: 484S 	0.00000	
//WLCalib: 529S 	0.07000	
//WLCalib: 823S 	-0.52000	
//QSpecEnd: 
220.0	8.127
220.5	8.917
221.0	9.830
221.5	10.758
222.0	11.591
222.5	12.555
223.0	13.759
223.5	14.973
224.0	16.423
224.5	18.041
225.0	19.743
225.5	20.870
226.0	21.856
226.5	22.432
227.0	22.693
227.5	22.916
228.0	23.070
228.5	22.794
229.0	22.384
229.5	21.926
230.0	21.293
230.5	20.435
231.0	19.536
231.5	18.585
232.0	17.565
232.5	16.524
233.0	15.498
233.5	14.480
234.0	13.514
234.5	12.600
235.0	11.707
235.5	10.860
236.0	10.074
236.5	9.323
237.0	8.589
237.5	7.864
238.0	7.156
238.5	6.499
239.0	5.930
239.5	5.482
240.0	5.136
240.5	4.864
241.0	4.646
241.5	4.460
242.0	4.294
242.5	4.136
243.0	3.988
243.5	3.858
244.0	3.754
244.5	3.674
245.0	3.612
245.5	3.563
246.0	3.520
246.5	3.485
247.0	3.458
247.5	3.440
248.0	3.430
248.5	3.427
249.0	3.431
249.5	3.441
250.0	3.456
250.5	3.473
251.0	3.497
251.5	3.524
252.0	3.556
252.5	3.595
253.0	3.637
253.5	3.688
254.0	3.743
254.5	3.796
255.0	3.853
255.5	3.921
256.0	3.997
256.5	4.081
257.0	4.160
257.5	4.228
258.0	4.289
258.5	4.336
259.0	4.378
259.5	4.416
260.0	4.449
260.5	4.482
261.0	4.513
261.5	4.540
262.0	4.569
262.5	4.599
263.0	4.629
263.5	4.668
264.0	4.714
264.5	4.771
265.0	4.834
265.5	4.894
266.0	4.952
266.5	5.008
267.0	5.062
267.5	5.115
268.0	5.170
268.5	5.223
269.0	5.270
269.5	5.315
270.0	5.357
270.5	5.398
271.0	5.437
271.5	5.476
272.0	5.512
272.5	5.546
273.0	5.579
273.5	5.610
274.0	5.635
274.5	5.660
275.0	5.683
275.5	5.707
276.0	5.729
276.5	5.748
277.0	5.761
277.5	5.768
278.0	5.771
278.5	5.765
279.0	5.753
279.5	5.731
280.0	5.705
280.5	5.674
281.0	5.631
281.5	5.578
282.0	5.506
282.5	5.424
283.0	5.327
283.5	5.227
284.0	5.123
284.5	5.023
285.0	4.922
285.5	4.814
286.0	4.694
286.5	4.562
287.0	4.416
287.5	4.262
288.0	4.104
288.5	3.947
289.0	3.786
289.5	3.622
290.0	3.449
290.5	3.260
291.0	3.058
291.5	2.851
292.0	2.652
292.5	2.467
293.0	2.288
293.5	2.112
294.0	1.939
294.5	1.777
295.0	1.626
295.5	1.490
296.0	1.371
296.5	1.265
297.0	1.175
297.5	1.092
298.0	1.013
298.5	0.939
299.0	0.867
299.5	0.800
300.0	0.738
300.5	0.681
301.0	0.625
301.5	0.567
302.0	0.511
302.5	0.459
303.0	0.412
303.5	0.370
304.0	0.333
304.5	0.298
305.0	0.268
305.5	0.241
306.0	0.214
306.5	0.191
307.0	0.169
307.5	0.150
308.0	0.133
308.5	0.117
309.0	0.104
309.5	0.093
310.0	0.084
310.5	0.078
311.0	0.071
311.5	0.065
312.0	0.059
312.5	0.055
313.0	0.050
313.5	0.048
314.0	0.045
314.5	0.043
315.0	0.042
315.5	0.041
316.0	0.042
316.5	0.042
317.0	0.040
317.5	0.037
318.0	0.035
318.5	0.033
319.0	0.032
319.5	0.030
320.0	0.029
320.5	0.027
321.0	0.028
321.5	0.027
322.0	0.025
322.5	0.023
323.0	0.022
323.5	0.022
324.0	0.020
324.5	0.018
325.0	0.020
325.5	0.019
326.0	0.018
326.5	0.018
327.0	0.018
327.5	0.015
328.0	0.015
328.5	0.013
329.0	0.011
329.5	0.010
330.0	0.012
330.5	0.010
331.0	0.009
331.5	0.010
332.0	0.009
332.5	0.008
333.0	0.008
333.5	0.007
334.0	0.006
334.5	0.006
335.0	0.009
335.5	0.008
336.0	0.008
336.5	0.010
337.0	0.010
337.5	0.008
338.0	0.006
338.5	0.005
339.0	0.003
339.5	0.000
340.0	0.000
340.5	0.000
341.0	-0.001
341.5	-0.002
342.0	-0.003
342.5	-0.004
343.0	-0.003
343.5	-0.003
344.0	-0.004
344.5	-0.004
345.0	-0.004
345.5	-0.003
346.0	-0.003
346.5	-0.003
347.0	-0.001
347.5	0.000
348.0	0.000
348.5	0.000
349.0	0.000
349.5	0.001
350.0	0.000



11/17/2020 10:24 PM
Wavelength (nm)	10mm Absorbance
//WLCalib: Shift 	0.05667	
//WLCalib: 261S 	-0.41000	
//WLCalib: 362S 	-0.47000	
//WLCalib: 484S 	0.00000	
//WLCalib: 529S 	0.07000	
//WLCalib: 823S 	-0.52000	
//QSpecEnd: 
220.0	4.122
220.5	4.963
221.0	5.881
221.5	6.946
222.0	7.998
222.5	9.074
223.0	10.232
223.5	11.581
224.0	13.154
224.5	14.944
225.0	16.778
225.5	18.370
226.0	19.782
226.5	20.862
227.0	21.677
227.5	22.502
228.0	23.141
228.5	23.474
229.0	23.807
229.5	24.012
230.0	23.963
230.5	23.625
231.0	23.095
231.5	22.262
232.0	21.332
232.5	20.238
233.0	19.113
233.5	18.043
234.0	16.975
234.5	15.926
235.0	14.867
235.5	13.874
236.0	12.913
236.5	11.988
237.0	11.086
237.5	10.192
238.0	9.330
238.5	8.513
239.0	7.816
239.5	7.269
240.0	6.856
240.5	6.530
241.0	6.261
241.5	6.028
242.0	5.818
242.5	5.621
243.0	5.428
243.5	5.259
244.0	5.123
244.5	5.017
245.0	4.934
245.5	4.864
246.0	4.810
246.5	4.764
247.0	4.729
247.5	4.705
248.0	4.693
248.5	4.690
249.0	4.698
249.5	4.713
250.0	4.733
250.5	4.760
251.0	4.793
251.5	4.831
252.0	4.879
252.5	4.937
253.0	5.005
253.5	5.076
254.0	5.153
254.5	5.229
255.0	5.311
255.5	5.401
256.0	5.510
256.5	5.633
257.0	5.752
257.5	5.854
258.0	5.938
258.5	6.010
259.0	6.074
259.5	6.130
260.0	6.178
260.5	6.221
261.0	6.266
261.5	6.308
262.0	6.350
262.5	6.395
263.0	6.443
263.5	6.500
264.0	6.565
264.5	6.642
265.0	6.729
265.5	6.812
266.0	6.892
266.5	6.971
267.0	7.047
267.5	7.120
268.0	7.200
268.5	7.276
269.0	7.347
269.5	7.412
270.0	7.471
270.5	7.532
271.0	7.587
271.5	7.643
272.0	7.701
272.5	7.751
273.0	7.801
273.5	7.844
274.0	7.883
274.5	7.920
275.0	7.959
275.5	7.996
276.0	8.025
276.5	8.052
277.0	8.073
277.5	8.087
278.0	8.091
278.5	8.084
279.0	8.066
279.5	8.038
280.0	8.002
280.5	7.957
281.0	7.896
281.5	7.819
282.0	7.720
282.5	7.599
283.0	7.461
283.5	7.315
284.0	7.167
284.5	7.021
285.0	6.871
285.5	6.710
286.0	6.538
286.5	6.352
287.0	6.145
287.5	5.924
288.0	5.698
288.5	5.474
289.0	5.244
289.5	5.009
290.0	4.760
290.5	4.491
291.0	4.204
291.5	3.912
292.0	3.631
292.5	3.373
293.0	3.125
293.5	2.879
294.0	2.638
294.5	2.413
295.0	2.206
295.5	2.020
296.0	1.857
296.5	1.713
297.0	1.588
297.5	1.473
298.0	1.364
298.5	1.260
299.0	1.160
299.5	1.067
300.0	0.981
300.5	0.901
301.0	0.822
301.5	0.743
302.0	0.665
302.5	0.594
303.0	0.530
303.5	0.472
304.0	0.420
304.5	0.372
305.0	0.330
305.5	0.292
306.0	0.257
306.5	0.225
307.0	0.196
307.5	0.171
308.0	0.148
308.5	0.130
309.0	0.113
309.5	0.100
310.0	0.088
310.5	0.077
311.0	0.070
311.5	0.064
312.0	0.059
312.5	0.053
313.0	0.046
313.5	0.041
314.0	0.038
314.5	0.034
315.0	0.031
315.5	0.031
316.0	0.028
316.5	0.029
317.0	0.027
317.5	0.023
318.0	0.022
318.5	0.022
319.0	0.020
319.5	0.017
320.0	0.016
320.5	0.017
321.0	0.019
321.5	0.018
322.0	0.017
322.5	0.018
323.0	0.017
323.5	0.016
324.0	0.013
324.5	0.012
325.0	0.014
325.5	0.014
326.0	0.013
326.5	0.013
327.0	0.013
327.5	0.011
328.0	0.010
328.5	0.007
329.0	0.006
329.5	0.005
330.0	0.004
330.5	0.002
331.0	0.003
331.5	0.003
332.0	0.004
332.5	0.004
333.0	0.002
333.5	0.002
334.0	0.001
334.5	0.000
335.0	0.002
335.5	0.001
336.0	0.003
336.5	0.003
337.0	0.006
337.5	0.005
338.0	0.004
338.5	0.004
339.0	0.003
339.5	0.001
340.0	0.000
340.5	0.001
341.0	0.001
341.5	0.001
342.0	0.002
342.5	0.002
343.0	0.004
343.5	0.004
344.0	0.003
344.5	0.003
345.0	0.002
345.5	0.001
346.0	0.001
346.5	0.001
347.0	0.002
347.5	0.003
348.0	0.003
348.5	0.004
349.0	0.002
349.5	0.003
350.0	0.001



11/17/2020 10:25 PM
Wavelength (nm)	10mm Absorbance
//WLCalib: Shift 	0.05667	
//WLCalib: 261S 	-0.41000	
//WLCalib: 362S 	-0.47000	
//WLCalib: 484S 	0.00000	
//WLCalib: 529S 	0.07000	
//WLCalib: 823S 	-0.52000	
//QSpecEnd: 
220.0	8.078
220.5	9.003
221.0	9.866
221.5	10.626
222.0	11.613
222.5	12.491
223.0	13.659
223.5	14.874
224.0	16.243
224.5	17.877
225.0	19.383
225.5	20.733
226.0	21.644
226.5	22.270
227.0	22.816
227.5	23.152
228.0	23.230
228.5	23.090
229.0	22.879
229.5	22.253
230.0	21.556
230.5	20.599
231.0	19.657
231.5	18.710
232.0	17.686
232.5	16.593
233.0	15.504
233.5	14.480
234.0	13.508
234.5	12.547
235.0	11.647
235.5	10.802
236.0	10.005
236.5	9.243
237.0	8.516
237.5	7.790
238.0	7.086
238.5	6.436
239.0	5.873
239.5	5.423
240.0	5.082
240.5	4.813
241.0	4.594
241.5	4.409
242.0	4.244
242.5	4.090
243.0	3.943
243.5	3.815
244.0	3.716
244.5	3.638
245.0	3.576
245.5	3.528
246.0	3.486
246.5	3.452
247.0	3.425
247.5	3.407
248.0	3.398
248.5	3.397
249.0	3.402
249.5	3.413
250.0	3.426
250.5	3.445
251.0	3.467
251.5	3.490
252.0	3.523
252.5	3.564
253.0	3.607
253.5	3.657
254.0	3.711
254.5	3.765
255.0	3.824
255.5	3.888
256.0	3.962
256.5	4.043
257.0	4.122
257.5	4.191
258.0	4.249
258.5	4.296
259.0	4.337
259.5	4.371
260.0	4.405
260.5	4.438
261.0	4.468
261.5	4.500
262.0	4.529
262.5	4.557
263.0	4.587
263.5	4.625
264.0	4.670
264.5	4.727
265.0	4.790
265.5	4.848
266.0	4.907
266.5	4.964
267.0	5.020
267.5	5.071
268.0	5.121
268.5	5.172
269.0	5.215
269.5	5.258
270.0	5.301
270.5	5.343
271.0	5.383
271.5	5.423
272.0	5.460
272.5	5.495
273.0	5.528
273.5	5.557
274.0	5.585
274.5	5.609
275.0	5.630
275.5	5.655
276.0	5.677
276.5	5.699
277.0	5.713
277.5	5.723
278.0	5.725
278.5	5.720
279.0	5.708
279.5	5.691
280.0	5.665
280.5	5.632
281.0	5.589
281.5	5.534
282.0	5.466
282.5	5.387
283.0	5.294
283.5	5.196
284.0	5.092
284.5	4.989
285.0	4.885
285.5	4.774
286.0	4.655
286.5	4.526
287.0	4.380
287.5	4.224
288.0	4.067
288.5	3.912
289.0	3.753
289.5	3.591
290.0	3.417
290.5	3.231
291.0	3.029
291.5	2.823
292.0	2.627
292.5	2.444
293.0	2.267
293.5	2.092
294.0	1.919
294.5	1.756
295.0	1.605
295.5	1.470
296.0	1.351
296.5	1.246
297.0	1.154
297.5	1.071
298.0	0.993
298.5	0.918
299.0	0.846
299.5	0.779
300.0	0.719
300.5	0.663
301.0	0.607
301.5	0.550
302.0	0.495
302.5	0.442
303.0	0.395
303.5	0.353
304.0	0.315
304.5	0.280
305.0	0.250
305.5	0.222
306.0	0.196
306.5	0.173
307.0	0.151
307.5	0.132
308.0	0.114
308.5	0.098
309.0	0.086
309.5	0.077
310.0	0.069
310.5	0.062
311.0	0.057
311.5	0.054
312.0	0.049
312.5	0.045
313.0	0.041
313.5	0.037
314.0	0.035
314.5	0.032
315.0	0.030
315.5	0.030
316.0	0.031
316.5	0.031
317.0	0.029
317.5	0.025
318.0	0.025
318.5	0.023
319.0	0.020
319.5	0.017
320.0	0.018
320.5	0.018
321.0	0.018
321.5	0.017
322.0	0.017
322.5	0.017
323.0	0.016
323.5	0.014
324.0	0.013
324.5	0.011
325.0	0.012
325.5	0.012
326.0	0.010
326.5	0.010
327.0	0.011
327.5	0.008
328.0	0.008
328.5	0.006
329.0	0.004
329.5	0.003
330.0	0.002
330.5	0.002
331.0	0.002
331.5	0.002
332.0	0.002
332.5	0.003
333.0	0.002
333.5	0.002
334.0	0.002
334.5	0.002
335.0	0.004
335.5	0.003
336.0	0.004
336.5	0.006
